File: convert_PP0_to_alpha-s/carbon_additional_data/Al-_Si-_Zr-_and_Fe-PILC1273K_N2_77K_convert_data.txt
# Standard Isotherm Data for Nitrogen Adsorption at 77 K on Al-, Si-, Zr- and Fe-PILC1273K Materials
# Jhonny Villarroel-Rocha et al./Adsorption Science & Technology Vol. 31 No. 2/3 2013
# Al-PILC1273K: SBET = 2.42 [m2/g], V(alpha-s=1) = V(P/P0=0.4) = V0.4 = 0.72 [cm3(STP)/g]
#   S(alpha-s)[m2/g] = slope[cm3(STP)/g] * 2.42/0.72 = slope[cm3(STP)/g] * 3.361111
#   [pyGAPS] BET surface area: a = 2 m2/g, The BET constant is: C = 6, Amount for a monolayer: n = 2e-05 mol/g
#      Amount for a monolayer: n = 2e-05 / (1/1000/22.414) = 2e-05 / 4.461e-5 = 0.44833 [cm3(STP)/g]
# Si-PILC1273K: SBET = 2.19 [m2/g], V(alpha-s=1) = V(P/P0=0.4) = V0.4 = 0.65 [cm3(STP)/g]
#   S(alpha-s)[m2/g] = slope[cm3(STP)/g] * 2.19/0.65 = slope[cm3(STP)/g] * 3.369231
#   [pyGAPS] BET surface area: a = 2 m2/g, The BET constant is: C = 5, Amount for a monolayer: n = 2e-05 mol/g
#      Amount for a monolayer: n = 2e-05 / (1/1000/22.414) = 2e-05 / 4.461e-5 = 0.44833 [cm3(STP)/g]
# Zr-PILC1273K: SBET = 4.29 [m2/g], V(alpha-s=1) = V(P/P0=0.4) = V0.4 = 1.48 [cm3(STP)/g]
#   S(alpha-s)[m2/g] = slope[cm3(STP)/g] * 4.29/1.48 = slope[cm3(STP)/g] * 2.898649
#   [pyGAPS] BET surface area: a = 4 m2/g, The BET constant is: C = 29, Amount for a monolayer: n = 4e-05 mol/g
#      Amount for a monolayer: n = 4e-05 / (1/1000/22.414) = 4e-05 / 4.461e-5 = 0.89666 [cm3(STP)/g]
# Fe-PILC1273K: SBET = 5.69 [m2/g], V(alpha-s=1) = V(P/P0=0.4) = V0.4 = 2.04 [cm3(STP)/g]
#   S(alpha-s)[m2/g] = slope[cm3(STP)/g] * 5.69/2.04 = slope[cm3(STP)/g] * 2.789216
#   [pyGAPS] BET surface area: a = 6 m2/g, The BET constant is: C = 40, Amount for a monolayer: n = 6e-05 mol/g
#      Amount for a monolayer: n = 6e-05 / (1/1000/22.414) = 6e-05 / 4.461e-5 = 1.34499 [cm3(STP)/g]
# pillared clays (PILCs)
# The reference materials were labelled according to their corresponding oligocation as Si-PILC1273K, Al-PILC1273K,Fe-PILC1273K and Zr-PILC1273K.
# P/P0, alpha-s(Al-PILC1273K), alpha-s(Si-PILC1273K), alpha-s(Zr-PILC1273K), alpha-s(Fe-PILC1273K)
0.0001, 0.019, 0.008, 0.062, 0.075
0.0002, 0.026, 0.014, 0.083, 0.099
0.0003, 0.031, 0.016, 0.096, 0.114
0.0004, 0.035, 0.018, 0.106, 0.126
0.0005, 0.038, 0.02, 0.115, 0.136
0.0006, 0.04, 0.022, 0.122, 0.144
0.0007, 0.043, 0.023, 0.128, 0.152
0.0008, 0.045, 0.024, 0.134, 0.158
0.0009, 0.047, 0.026, 0.139, 0.164
0.001, 0.049, 0.027, 0.144, 0.17
0.0012, 0.052, 0.029, 0.152, 0.179
0.0014, 0.055, 0.031, 0.16, 0.188
0.0016, 0.058, 0.032, 0.167, 0.196
0.0018, 0.06, 0.033, 0.173, 0.203
0.0021, 0.064, 0.035, 0.181, 0.212
0.0024, 0.067, 0.037, 0.188, 0.22
0.0027, 0.069, 0.039, 0.195, 0.228
0.003, 0.072, 0.04, 0.201, 0.235
0.0034, 0.075, 0.043, 0.208, 0.244
0.0038, 0.079, 0.045, 0.215, 0.252
0.0043, 0.083, 0.047, 0.223, 0.261
0.0048, 0.086, 0.05, 0.231, 0.269
0.0053, 0.09, 0.052, 0.237, 0.277
0.0058, 0.093, 0.054, 0.243, 0.284
0.0063, 0.096, 0.057, 0.249, 0.29
0.0071, 0.101, 0.06, 0.257, 0.3
0.0076, 0.103, 0.062, 0.262, 0.305
0.0084, 0.108, 0.066, 0.269, 0.313
0.0092, 0.112, 0.069, 0.276, 0.321
0.01, 0.116, 0.072, 0.282, 0.327
0.0125, 0.127, 0.081, 0.299, 0.345
0.015, 0.136, 0.089, 0.315, 0.359
0.0175, 0.144, 0.096, 0.327, 0.372
0.02, 0.151, 0.104, 0.338, 0.383
0.025, 0.165, 0.118, 0.356, 0.401
0.03, 0.179, 0.133, 0.373, 0.417
0.035, 0.192, 0.147, 0.387, 0.432
0.04, 0.204, 0.16, 0.401, 0.445
0.05, 0.228, 0.188, 0.425, 0.469
0.06, 0.252, 0.215, 0.448, 0.49
0.07, 0.275, 0.24, 0.47, 0.51
0.08, 0.296, 0.265, 0.489, 0.528
0.09, 0.318, 0.291, 0.508, 0.545
0.1, 0.339, 0.316, 0.527, 0.563
0.12, 0.385, 0.365, 0.561, 0.594
0.14, 0.43, 0.416, 0.595, 0.624
0.16, 0.472, 0.463, 0.628, 0.654
0.18, 0.515, 0.509, 0.661, 0.683
0.2, 0.558, 0.553, 0.692, 0.711
0.225, 0.611, 0.615, 0.732, 0.745
0.25, 0.665, 0.671, 0.771, 0.78
0.275, 0.72, 0.732, 0.812, 0.816
0.3, 0.775, 0.789, 0.852, 0.852
0.325, 0.83, 0.843, 0.887, 0.888
0.35, 0.886, 0.894, 0.926, 0.923
0.375, 0.942, 0.947, 0.962, 0.961
0.4, 1, 1, 1, 1
0.425, 1.059, 1.055, 1.038, 1.041
0.45, 1.12, 1.111, 1.079, 1.084
0.475, 1.183, 1.169, 1.122, 1.127
0.5, 1.245, 1.224, 1.162, 1.171
0.525, 1.306, 1.276, 1.207, 1.217
0.55, 1.367, 1.33, 1.25, 1.263
0.575, 1.43, 1.392, 1.296, 1.312
0.6, 1.496, 1.446, 1.339, 1.364
0.625, 1.568, 1.512, 1.391, 1.424
0.65, 1.647, 1.57, 1.447, 1.492
0.675, 1.722, 1.629, 1.503, 1.566
0.7, 1.794, 1.689, 1.555, 1.643
0.725, 1.877, 1.752, 1.613, 1.728
0.75, 1.964, 1.82, 1.685, 1.829
0.775, 2.052, 1.892, 1.769, 1.968
0.8, 2.136, 1.963, 1.867, 2.11
0.82, 2.207, 2.027, 1.955, 2.253
0.84, 2.307, 2.104, 2.071, 2.423
0.86, 2.418, 2.185, 2.23, 2.664
0.88, 2.545, 2.283, 2.434, 2.925
0.9, 2.706, 2.378, 2.741, 3.298
0.91, 2.807, 2.443, 2.954, 3.494
0.92, 2.925, 2.515, 3.207, 3.719
0.93, 3.064, 2.602, 3.532, 4.01
0.94, 3.223, 2.718, 3.975, 4.314
0.95, 3.42, 2.887, 4.59, 4.703
0.96, 3.655, 3.057, 5.435, 5.121
0.97, 3.975, 3.365, 6.631, 5.69