File: convert_PP0_to_alpha-s/carbon_additional_data/Cabot_BP280_Ar_87K_convert_data.txt
# nongraphitized carbon black (BP 280), Ar, 87 K, data
# V(alpha-s=1) = V(P/P0=0.4) = V0.4 = 15.60 [cm3(STP)/g], S(BET) = 35.9 [m2/g]
# S(alpha-s)[m2/g] = slope[cm3(STP)/g] * 35.9/15.60 = slope[cm3(STP)/g] * 2.301282
# [pyGAPS] BET surface area: a = 36 m2/g, C = 138, Amount for a monolayer: n = 0.00043 mol/g
#   Amount for a monolayer: n = 0.00043 / (1/1000/22.414) = 0.00043 / 4.461e-5 = 9.63909 [cm3(STP)/g]
# L. Gardner et al., J. Phys. Chem. B 105 (2001).
# P/P0, alpha-s, V[cm3(STP)/g], t[nm]
0.00000638, 0.00656, 0.102336, 0.003567233
0.0000183, 0.0131, 0.20436, 0.00712359
0.0000353, 0.0196, 0.30576, 0.0106582
0.0000567, 0.0262, 0.40872, 0.0142472
0.0000816, 0.0327, 0.51012, 0.0177818
0.00011, 0.0391, 0.60996, 0.021262
0.000141, 0.0456, 0.71136, 0.02479662
0.000177, 0.0521, 0.81276, 0.0283312
0.000214, 0.0585, 0.9126, 0.0318115
0.000253, 0.065, 1.014, 0.0353461
0.000295, 0.0714, 1.11384, 0.0388263
0.000339, 0.0778, 1.21368, 0.0423065
0.000385, 0.0843, 1.31508, 0.04584112
0.000434, 0.0907, 1.41492, 0.0493213
0.000485, 0.0971, 1.51476, 0.0528016
0.000538, 0.103, 1.6068, 0.0560099
0.000593, 0.11, 1.716, 0.0598164
0.00065, 0.116, 1.8096, 0.0630791
0.00071, 0.123, 1.9188, 0.06688562
0.000772, 0.129, 2.0124, 0.0701483
0.000836, 0.135, 2.106, 0.073411
0.000903, 0.142, 2.2152, 0.0772175
0.000972, 0.148, 2.3088, 0.0804803
0.00104, 0.154, 2.4024, 0.083743
0.00112, 0.16, 2.496, 0.0870057
0.0012, 0.167, 2.6052, 0.0908122
0.00128, 0.173, 2.6988, 0.0940749
0.00136, 0.179, 2.7924, 0.0973376
0.00145, 0.186, 2.9016, 0.101144
0.00154, 0.192, 2.9952, 0.104407
0.00163, 0.198, 3.0888, 0.10767
0.00173, 0.204, 3.1824, 0.110932
0.00183, 0.211, 3.2916, 0.114739
0.00193, 0.217, 3.3852, 0.118001
0.00204, 0.223, 3.4788, 0.121264
0.00215, 0.229, 3.5724, 0.124527
0.00227, 0.235, 3.666, 0.12779
0.00239, 0.241, 3.7596, 0.131052
0.00251, 0.247, 3.8532, 0.134315
0.00265, 0.254, 3.9624, 0.138122
0.00278, 0.26, 4.056, 0.141384
0.00292, 0.266, 4.1496, 0.144647
0.00307, 0.272, 4.2432, 0.14791
0.00322, 0.278, 4.3368, 0.151172
0.00338, 0.284, 4.4304, 0.154435
0.00355, 0.29, 4.524, 0.157698
0.00373, 0.296, 4.6176, 0.160961
0.00391, 0.301, 4.6956, 0.163679
0.0041, 0.307, 4.7892, 0.166942
0.0043, 0.313, 4.8828, 0.170205
0.00451, 0.319, 4.9764, 0.173468
0.00473, 0.325, 5.07, 0.17673
0.00496, 0.33, 5.148, 0.179449
0.0052, 0.336, 5.2416, 0.182712
0.00545, 0.342, 5.3352, 0.185975
0.00573, 0.348, 5.4288, 0.189237
0.00602, 0.354, 5.5224, 0.1925
0.00632, 0.359, 5.6004, 0.195219
0.00664, 0.365, 5.694, 0.198482
0.00702, 0.371, 5.7876, 0.201744
0.00736, 0.377, 5.8812, 0.205007
0.00773, 0.383, 5.9748, 0.20827
0.0081, 0.388, 6.0528, 0.210989
0.00849, 0.393, 6.1308, 0.213708
0.00891, 0.399, 6.2244, 0.21697
0.00932, 0.404, 6.3024, 0.219689
0.00978, 0.41, 6.396, 0.222952
0.0102, 0.415, 6.474, 0.225671
0.0111, 0.424, 6.6144, 0.230565
0.0126, 0.437, 6.8172, 0.237634
0.0151, 0.455, 7.098, 0.247422
0.0175, 0.47, 7.332, 0.255579
0.02, 0.483, 7.5348, 0.262648
0.0252, 0.505, 7.878, 0.274612
0.0299, 0.522, 8.1432, 0.283856
0.0349, 0.536, 8.3616, 0.291469
0.04, 0.549, 8.5644, 0.298538
0.0451, 0.56, 8.736, 0.30452
0.0501, 0.57, 8.892, 0.309958
0.0581, 0.584, 9.1104, 0.317571
0.0701, 0.603, 9.4068, 0.327903
0.0801, 0.618, 9.6408, 0.336059
0.09, 0.63, 9.828, 0.342585
0.1, 0.643, 10.0308, 0.349654
0.119, 0.665, 10.374, 0.361617
0.14, 0.687, 10.7172, 0.373581
0.16, 0.709, 11.0604, 0.385544
0.18, 0.73, 11.388, 0.396963
0.2, 0.751, 11.7156, 0.408383
0.22, 0.773, 12.0588, 0.420346
0.24, 0.79, 12.324, 0.429591
0.261, 0.818, 12.7608, 0.444817
0.281, 0.842, 13.1352, 0.457867
0.301, 0.867, 13.5252, 0.471462
0.321, 0.892, 13.9152, 0.485057
0.341, 0.919, 14.3364, 0.499739
0.361, 0.945, 14.742, 0.513877
0.381, 0.972, 15.1632, 0.52856
0.401, 1, 15.6, 0.543786
0.421, 1.03, 16.068, 0.560099
0.441, 1.06, 16.536, 0.576413
0.461, 1.09, 17.004, 0.592726
0.48, 1.11, 17.316, 0.603602
0.5, 1.14, 17.784, 0.619915
0.52, 1.17, 18.252, 0.636229
0.541, 1.2, 18.72, 0.652543
0.561, 1.23, 19.188, 0.668856
0.581, 1.27, 19.812, 0.690608
0.601, 1.3, 20.28, 0.706921
0.621, 1.34, 20.904, 0.728673
0.641, 1.37, 21.372, 0.744986
0.66, 1.41, 21.996, 0.766738
0.68, 1.45, 22.62, 0.788489
0.7, 1.49, 23.244, 0.81024
0.72, 1.54, 24.024, 0.83743
0.74, 1.59, 24.804, 0.864619
0.76, 1.65, 25.74, 0.897246
0.782, 1.72, 26.832, 0.935311
0.799, 1.78, 27.768, 0.967938
0.82, 1.87, 29.172, 1.01688
0.84, 1.96, 30.576, 1.06582
0.86, 2.07, 32.292, 1.12564
0.879, 2.21, 34.476, 1.20177
0.898, 2.39, 37.284, 1.29965
0.91, 2.52, 39.312, 1.37034
0.919, 2.65, 41.34, 1.44103
0.927, 2.8, 43.68, 1.5226
0.935, 2.97, 46.332, 1.61504
0.947, 3.29, 51.324, 1.78905
0.953, 3.5, 54.6, 1.90325
0.963, 3.97, 61.932, 2.15883
0.972, 4.68, 73.008, 2.54492
0.982, 6.22, 97.032, 3.38235
0.987, 7.73, 120.588, 4.20346