File: convert_PP0_to_alpha-s/carbon_additional_data/Cabot_BP280_Ar_77K_convert_data.txt
# nongraphitized carbon black (BP 280), Ar, 77 K, data, t
# V(alpha-s=1) = V(P/P0=0.4) = V0.4 = 15.65 [cm3(STP)/g], S(BET) = 36.6 [m2/g]
# S(alpha-s)[m2/g] = slope[cm3(STP)/g] * 36.6/15.65 = slope[cm3(STP)/g] * 2.338658
# [pyGAPS] BET surface area: a = 37 m2/g, The BET constant is: C = 229, Amount for a monolayer: n = 0.00044 mol/g
#   Amount for a monolayer: n = 0.00044 / (1/1000/22.414) = 0.00044 / 4.461e-5 = 9.86326 [cm3(STP)/g]
# L. Gardner et al., J. Phys. Chem. B 105 (2001).
# P/P0, alpha-s, V[cm3(STP)/g], t[nm]
0.00000966, 0.00654, 0.102351, 0.003486671
0.000011, 0.0131, 0.205015, 0.006984004
0.0000178, 0.0196, 0.30674, 0.0104493
0.0000275, 0.0262, 0.41003, 0.013968
0.0000394, 0.0327, 0.511755, 0.0174334
0.0000534, 0.0393, 0.615045, 0.020952
0.0000691, 0.0458, 0.71677, 0.0244174
0.0000866, 0.0524, 0.82006, 0.027936
0.000106, 0.0589, 0.921785, 0.03140136
0.000127, 0.0654, 1.02351, 0.0348667
0.000149, 0.072, 1.1268, 0.0383854
0.000173, 0.0785, 1.228525, 0.0418507
0.000198, 0.0851, 1.331815, 0.0453694
0.000225, 0.0916, 1.43354, 0.0488347
0.000253, 0.0981, 1.535265, 0.0523001
0.000283, 0.105, 1.64325, 0.0559787
0.000313, 0.111, 1.73715, 0.0591774
0.000345, 0.118, 1.8467, 0.0629093
0.000379, 0.124, 1.9406, 0.0661081
0.000414, 0.131, 2.05015, 0.06984
0.00045, 0.137, 2.14405, 0.0730388
0.000488, 0.144, 2.2536, 0.0767707
0.000527, 0.15, 2.3475, 0.0799695
0.000566, 0.157, 2.45705, 0.0837014
0.000658, 0.17, 2.6605, 0.0906321
0.00075, 0.183, 2.86395, 0.0975628
0.000851, 0.196, 3.0674, 0.104493
0.00096, 0.209, 3.27085, 0.111424
0.00108, 0.222, 3.4743, 0.118355
0.00121, 0.235, 3.67775, 0.125286
0.00135, 0.248, 3.8812, 0.132216
0.0015, 0.261, 4.08465, 0.139147
0.00167, 0.274, 4.2881, 0.146078
0.00186, 0.287, 4.49155, 0.153008
0.00207, 0.3, 4.695, 0.159939
0.0023, 0.313, 4.89845, 0.16687
0.00256, 0.326, 5.1019, 0.1738
0.00285, 0.339, 5.30535, 0.180731
0.00318, 0.352, 5.5088, 0.187662
0.00355, 0.365, 5.71225, 0.194592
0.00397, 0.378, 5.9157, 0.201523
0.00446, 0.391, 6.11915, 0.208454
0.00501, 0.403, 6.30695, 0.214851
0.00565, 0.416, 6.5104, 0.221782
0.00638, 0.429, 6.71385, 0.228713
0.00722, 0.441, 6.90165, 0.23511
0.00821, 0.454, 7.1051, 0.242041
0.00934, 0.466, 7.2929, 0.248439
0.0106, 0.478, 7.4807, 0.254836
0.0109, 0.481, 7.52765, 0.256436
0.0121, 0.49, 7.6685, 0.261234
0.0148, 0.508, 7.9502, 0.27083
0.0168, 0.519, 8.12235, 0.276694
0.019, 0.53, 8.2945, 0.282559
0.0243, 0.55, 8.6075, 0.293222
0.0301, 0.568, 8.8892, 0.302818
0.0338, 0.578, 9.0457, 0.308149
0.039, 0.59, 9.2335, 0.314547
0.0446, 0.601, 9.40565, 0.320411
0.05, 0.611, 9.56215, 0.325742
0.0604, 0.627, 9.81255, 0.334273
0.0701, 0.641, 10.03165, 0.341736
0.0802, 0.653, 10.21945, 0.348134
0.0902, 0.665, 10.40725, 0.354531
0.1, 0.676, 10.5794, 0.360396
0.119, 0.695, 10.87675, 0.370525
0.141, 0.716, 11.2054, 0.381721
0.162, 0.736, 11.5184, 0.392384
0.182, 0.755, 11.81575, 0.402513
0.202, 0.774, 12.1131, 0.412643
0.222, 0.794, 12.4261, 0.423305
0.243, 0.814, 12.7391, 0.433968
0.263, 0.835, 13.06775, 0.445164
0.283, 0.857, 13.41205, 0.456892
0.303, 0.879, 13.75635, 0.468621
0.323, 0.903, 14.13195, 0.481416
0.343, 0.927, 14.50755, 0.494212
0.361, 0.949, 14.85185, 0.50594
0.38, 0.974, 15.2431, 0.519269
0.4, 1, 15.65, 0.53313
0.42, 1.03, 16.1195, 0.549124
0.44, 1.05, 16.4325, 0.559787
0.46, 1.08, 16.902, 0.57578
0.48, 1.11, 17.3715, 0.591774
0.5, 1.13, 17.6845, 0.602437
0.52, 1.16, 18.154, 0.618431
0.54, 1.18, 18.467, 0.629093
0.56, 1.21, 18.9365, 0.645087
0.58, 1.24, 19.406, 0.661081
0.6, 1.27, 19.8755, 0.677075
0.62, 1.29, 20.1885, 0.687738
0.64, 1.32, 20.658, 0.703732
0.66, 1.35, 21.1275, 0.719726
0.68, 1.38, 21.597, 0.735719
0.7, 1.41, 22.0665, 0.751713
0.72, 1.44, 22.536, 0.767707
0.739, 1.48, 23.162, 0.789032
0.76, 1.52, 23.788, 0.810358
0.78, 1.55, 24.2575, 0.826352
0.801, 1.6, 25.04, 0.853008
0.82, 1.64, 25.666, 0.874333
0.841, 1.69, 26.4485, 0.90099
0.861, 1.74, 27.231, 0.927646
0.882, 1.8, 28.17, 0.959634
0.901, 1.86, 29.109, 0.991622
0.921, 1.94, 30.361, 1.03427
0.94, 2.01, 31.4565, 1.07159
0.958, 2.1, 32.865, 1.11957
0.972, 2.17, 33.9605, 1.15689
0.981, 2.22, 34.743, 1.18355
0.995, 2.27, 35.5255, 1.21021