File: convert_PP0_to_alpha-s/carbon_additional_data/Carbon_LMA10_Ar_87K_convert_data.txt
# LMA10, Ar, 87.3 K, data, t
# Standard data for the adsorption of Ar at 87.3 K on reference carbon LMA10.
# A. Silvestre-Albero et al., Carbon 66 (2014) 699.
# (i.e., n/nm -where nm is the monolayer capacity from which the BET surface area is determined- against P/P0)
# nm = 7.37e-5 [mol/g], V(alpha-s=1) = V(P/P0=0.4) = V0.4 = 2.68 [cm3(STP)/g]
# [pyGASP] S(BET) = 6 [m2/g], C = 101, nm = 7e-5 [mol/g]
#   Amount for a monolayer: n = 7.37e-5 / (1/1000/22.414) = 7.37e-5 / 4.461e-5 = 2.05111 [cm3(STP)/g]
# S [m2/g]= slope [cm3(STP)/g] * 6.00/2.68 = slope [cm3(STP)/g] * 2.238806
# P/P0, alpha-s, n/nm, V[cm3(STP)/g], t[nm]
9.82E-06, 0.00165929, 0.00269599, 0.004446897, 0.000728463
2.04E-05, 0.00712006, 0.01156855, 0.0190818, 0.003125855
5.10E-05, 0.00859628, 0.01396708, 0.02303803, 0.003773947
7.04E-05, 0.00884297, 0.01436789, 0.02369916, 0.003882249
8.32E-05, 0.01350688, 0.02194573, 0.0361984, 0.005929803
9.60E-05, 0.02008158, 0.03262818, 0.0538186, 0.008816233
0.00016047, 0.02387656, 0.03879419, 0.0639892, 0.0104823
0.00026554, 0.03687081, 0.059907, 0.0988138, 0.0161871
0.00034209, 0.04637553, 0.07535009, 0.124286, 0.0203598
0.00058726, 0.07750901, 0.125935, 0.207724, 0.0340281
0.00123357, 0.157983, 0.256688, 0.423394, 0.0693578
0.00160473, 0.188682, 0.306567, 0.505668, 0.0828354
0.00308055, 0.267314, 0.434327, 0.716402, 0.117357
0.00574851, 0.354174, 0.575455, 0.949186, 0.15549
0.00831957, 0.40259, 0.654121, 1.07894, 0.176745
0.01070805, 0.430498, 0.6994644, 1.15373, 0.188997
0.01214353, 0.442845, 0.719526, 1.18682, 0.194418
0.01370239, 0.456775, 0.742159, 1.22416, 0.200534
0.01570822, 0.471332, 0.765812, 1.26317, 0.206925
0.01802586, 0.480805, 0.781203, 1.28856, 0.211083
0.02064989, 0.492245, 0.799791, 1.31922, 0.216106
0.02359458, 0.501555, 0.814918, 1.34417, 0.220193
0.02891659, 0.510706, 0.829785, 1.36869, 0.22421
0.0312283, 0.51251, 0.832717, 1.37353, 0.225003
0.03493375, 0.51741, 0.840677, 1.38666, 0.227154
0.03908301, 0.527916, 0.857748, 1.41482, 0.231766
0.04290497, 0.535299, 0.869743, 1.4346, 0.235007
0.04941448, 0.539318, 0.876273, 1.44537, 0.236772
0.05720449, 0.553875, 0.899926, 1.48439, 0.243163
0.06438413, 0.559082, 0.908386, 1.49834, 0.245449
0.07039935, 0.569639, 0.925539, 1.52663, 0.250084
0.07635671, 0.576333, 0.936416, 1.54457, 0.253022
0.08245729, 0.582778, 0.946886, 1.56184, 0.255852
0.08618729, 0.586167, 0.952393, 1.57093, 0.257339
0.09723496, 0.60167, 0.977582, 1.61248, 0.264146
0.102132, 0.607602, 0.987221, 1.62837, 0.26675
0.11183, 0.618408, 1.00478, 1.65733, 0.271494
0.122663, 0.629527, 1.02284, 1.68713, 0.276376
0.134523, 0.644372, 1.04696, 1.72692, 0.282893
0.151208, 0.662574, 1.07654, 1.7757, 0.290884
0.162664, 0.681293, 1.10695, 1.82587, 0.299102
0.173323, 0.692746, 1.12556, 1.85656, 0.30413
0.186875, 0.715358, 1.1623, 1.91716, 0.314057
0.19277, 0.722343, 1.17365, 1.93588, 0.317123
0.206168, 0.73646, 1.19659, 1.97371, 0.323321
0.225373, 0.75984, 1.23457, 2.03637, 0.333586
0.236651, 0.772391, 1.25497, 2.07001, 0.339096
0.249169, 0.788659, 1.2814, 2.11361, 0.346238
0.261021, 0.808392, 1.31346, 2.16649, 0.354901
0.2745616, 0.82231, 1.33607, 2.20379, 0.361011
0.286432, 0.831269, 1.35063, 2.2278, 0.364944
0.297486, 0.84835, 1.37838, 2.27358, 0.372443
0.308351, 0.86344, 1.4029, 2.31402, 0.379068
0.317066, 0.882692, 1.43418, 2.36561, 0.38752
0.328321, 0.900679, 1.46341, 2.41382, 0.395417
0.338333, 0.9213198, 1.49694, 2.46914, 0.404479
0.348212, 0.927931, 1.50768, 2.48685, 0.407381
0.362664, 0.95114, 1.54539, 2.54905, 0.41757
0.370615, 0.960345, 1.56035, 2.57372, 0.421611
0.377557, 0.978393, 1.58967, 2.62209, 0.429535
0.388694, 0.991725, 1.61134, 2.65782, 0.435388
0.399217, 0.999974, 1.62474, 2.67993, 0.43901
0.411733, 1.01879, 1.65531, 2.73035, 0.447269
0.439434, 1.04866, 1.70384, 2.81041, 0.460384
0.481226, 1.1129, 1.80822, 2.98257, 0.488586
0.5131092, 1.17033, 1.90154, 3.1365, 0.513801
0.5543749, 1.26271, 2.05163, 3.38407, 0.554357
0.575071, 1.31612, 2.1384, 3.52719, 0.577802
0.615677, 1.40281, 2.27925, 3.75952, 0.615861
0.643906, 1.46719, 2.38386, 3.93207, 0.644126
0.667397, 1.53651, 2.4965, 4.11786, 0.674561
0.692191, 1.61325, 2.62118, 4.32351, 0.70825
0.710227, 1.6572, 2.69259, 4.44131, 0.727547
0.736366, 1.76174, 2.86244, 4.72145, 0.773439
0.761483, 1.86209, 3.02549, 4.99041, 0.817498
0.777782, 1.92495, 3.12763, 5.15888, 0.845095
0.839458, 2.24412, 3.6462, 6.01424, 0.985215
0.873348, 2.49298, 4.05054, 6.68118, 1.09447
0.894483, 2.70843, 4.4006, 7.25859, 1.18906
0.917358, 3.07514, 4.99643, 8.24138, 1.35005
0.931467, 3.41458, 5.54795, 9.15107, 1.49907
0.953174, 4.01491, 6.52335, 10.76, 1.76263
0.957065, 4.18627, 6.80178, 11.2192, 1.83786
0.974662, 4.87102, 7.91435, 13.0543, 2.13848
0.983504, 5.72502, 9.30191, 15.3431, 2.5134
0.993939, 7.44402, 12.0949, 19.95, 3.26808
0.994937, 7.89926, 12.8346, 21.17, 3.46794