File: convert_PP0_to_alpha-s/carbon_additional_data/Carbopack_F_Ar_77K_convert_data.txt
# Carbopack F Graphitized Carbon Black, Ar, 77 K, data
# L. Gardner et al., J. Phys. Chem. B 105 (2001).
# V(alpha-s=1) = V(P/P0=0.4) = V0.4 = 3.173 [cm3(STP)/g], S(BET) = 5.88 [m2/g]
# S(alpha-s)[m2/g] = slope[cm3(STP)/g] * 5.88/3.173 = slope[cm3(STP)/g] * 1.853136
# [pyGAPS] BET surface area: a = 6 m2/g, The BET constant is: C = 796, Amount for a monolayer: n = 8e-05 mol/g
#   Amount for a monolayer: n = 8e-05 / (1/1000/22.414) = 8e-05 / 4.461e-5 = 1.79332 [cm3(STP)/g]
# graphitized carbon black (Carbopack F)
# P/P0, alpha-s, V[cm3(STP)/g], t[nm]
0.0000585, 0.00608, 0.01929184, 0.003614557
0.000116, 0.0122, 0.0387106, 0.007252895
0.00017, 0.0184, 0.0583832, 0.0109388
0.000219, 0.0245, 0.0777385, 0.01456524
0.000263, 0.0307, 0.0974111, 0.0182511
0.000304, 0.0368, 0.1167664, 0.0218776
0.000341, 0.043, 0.136439, 0.0255635
0.000375, 0.0492, 0.1561116, 0.02924938
0.000423, 0.059, 0.187207, 0.0350755
0.000466, 0.0688, 0.2183024, 0.0409016
0.000504, 0.0787, 0.2497151, 0.0467871
0.000539, 0.0885, 0.2808105, 0.0526132
0.00057, 0.0984, 0.3122232, 0.0584988
0.000598, 0.108, 0.342684, 0.064206
0.00063, 0.118, 0.374414, 0.070151
0.000654, 0.128, 0.406144, 0.0760959
0.000677, 0.138, 0.437874, 0.0820409
0.000698, 0.148, 0.469604, 0.0879859
0.000719, 0.158, 0.501334, 0.0939309
0.000739, 0.168, 0.533064, 0.0998759
0.000758, 0.177, 0.561621, 0.105226
0.000777, 0.187, 0.593351, 0.111171
0.000796, 0.197, 0.625081, 0.117116
0.000814, 0.207, 0.656811, 0.123061
0.000833, 0.217, 0.688541, 0.129006
0.000852, 0.227, 0.720271, 0.134951
0.000872, 0.237, 0.752001, 0.140896
0.000892, 0.247, 0.783731, 0.146841
0.000912, 0.257, 0.815461, 0.152786
0.000934, 0.267, 0.847191, 0.158731
0.000956, 0.276, 0.875748, 0.164082
0.000981, 0.286, 0.907478, 0.170027
0.00101, 0.296, 0.939208, 0.175972
0.00104, 0.306, 0.970938, 0.181917
0.00107, 0.316, 1.002668, 0.187862
0.0011, 0.326, 1.034398, 0.193807
0.00114, 0.336, 1.066128, 0.199752
0.00118, 0.345, 1.094685, 0.205102
0.00123, 0.355, 1.126415, 0.211047
0.00129, 0.365, 1.158145, 0.216992
0.00135, 0.375, 1.189875, 0.222937
0.00142, 0.384, 1.218432, 0.228288
0.00151, 0.394, 1.250162, 0.234233
0.00162, 0.404, 1.281892, 0.240178
0.00175, 0.413, 1.310449, 0.245528
0.00191, 0.423, 1.342179, 0.251473
0.00211, 0.432, 1.370736, 0.256824
0.00237, 0.441, 1.399293, 0.262174
0.00269, 0.45, 1.42785, 0.267525
0.00311, 0.459, 1.456407, 0.272875
0.00365, 0.467, 1.481791, 0.277631
0.00432, 0.475, 1.507175, 0.282387
0.00516, 0.482, 1.529386, 0.286549
0.00619, 0.489, 1.551597, 0.29071
0.00757, 0.496, 1.573808, 0.294872
0.00922, 0.503, 1.596019, 0.299033
0.0111, 0.508, 1.611884, 0.302006
0.0123, 0.511, 1.621403, 0.303789
0.0126, 0.512, 1.624576, 0.304384
0.0151, 0.517, 1.640441, 0.307356
0.0178, 0.522, 1.656306, 0.310329
0.0202, 0.526, 1.668998, 0.312707
0.0215, 0.528, 1.675344, 0.313896
0.0228, 0.53, 1.68169, 0.315085
0.0241, 0.532, 1.688036, 0.316274
0.0247, 0.533, 1.691209, 0.316868
0.0254, 0.534, 1.694382, 0.317463
0.0259, 0.535, 1.697555, 0.318057
0.0276, 0.537, 1.703901, 0.319246
0.0283, 0.538, 1.707074, 0.319841
0.0301, 0.541, 1.716593, 0.321624
0.0309, 0.542, 1.719766, 0.322219
0.0328, 0.546, 1.732458, 0.324597
0.0336, 0.547, 1.735631, 0.325191
0.0354, 0.55, 1.74515, 0.326975
0.0361, 0.551, 1.748323, 0.327569
0.0377, 0.554, 1.757842, 0.329353
0.0384, 0.556, 1.764188, 0.330542
0.0403, 0.559, 1.773707, 0.332325
0.0428, 0.563, 1.786399, 0.334703
0.0454, 0.567, 1.799091, 0.337081
0.0503, 0.572, 1.814956, 0.340054
0.0601, 0.579, 1.837167, 0.344215
0.0708, 0.585, 1.856205, 0.347782
0.0809, 0.589, 1.868897, 0.35016
0.091, 0.594, 1.884762, 0.353133
0.101, 0.598, 1.897454, 0.355511
0.111, 0.602, 1.910146, 0.357889
0.121, 0.605, 1.919665, 0.359672
0.131, 0.609, 1.932357, 0.36205
0.141, 0.613, 1.945049, 0.364428
0.151, 0.617, 1.957741, 0.366806
0.161, 0.621, 1.970433, 0.369184
0.171, 0.625, 1.983125, 0.371562
0.181, 0.629, 1.995817, 0.37394
0.191, 0.634, 2.011682, 0.376913
0.201, 0.639, 2.027547, 0.379885
0.211, 0.644, 2.043412, 0.382858
0.221, 0.649, 2.059277, 0.38583
0.231, 0.655, 2.078315, 0.389397
0.241, 0.661, 2.097353, 0.392964
0.251, 0.667, 2.116391, 0.396531
0.26, 0.674, 2.138602, 0.400693
0.27, 0.682, 2.163986, 0.405449
0.28, 0.69, 2.18937, 0.410205
0.289, 0.7, 2.2211, 0.41615
0.299, 0.711, 2.256003, 0.422689
0.308, 0.724, 2.297252, 0.430418
0.318, 0.738, 2.341674, 0.438741
0.327, 0.755, 2.395615, 0.448847
0.336, 0.776, 2.462248, 0.461332
0.349, 0.812, 2.576476, 0.482734
0.36, 0.852, 2.703396, 0.506514
0.371, 0.895, 2.839835, 0.532077
0.381, 0.936, 2.969928, 0.556452
0.39, 0.97, 3.07781, 0.5766646
0.4, 1, 3.173, 0.5945
0.41, 1.03, 3.26819, 0.612335
0.42, 1.05, 3.33165, 0.624225
0.43, 1.07, 3.39511, 0.636115
0.44, 1.09, 3.45857, 0.648005
0.45, 1.1, 3.4903, 0.65395
0.46, 1.12, 3.55376, 0.66584
0.47, 1.13, 3.58549, 0.671785
0.48, 1.14, 3.61722, 0.67773
0.49, 1.15, 3.64895, 0.683675
0.5, 1.17, 3.71241, 0.695565
0.51, 1.18, 3.74414, 0.70151
0.52, 1.19, 3.77587, 0.707455
0.53, 1.2, 3.8076, 0.7134
0.54, 1.21, 3.83933, 0.719345
0.55, 1.22, 3.87106, 0.725289
0.56, 1.24, 3.93452, 0.737179
0.57, 1.25, 3.96625, 0.743124
0.579, 1.26, 3.99798, 0.749069
0.59, 1.28, 4.06144, 0.760959
0.599, 1.3, 4.1249, 0.772849
0.61, 1.32, 4.18836, 0.784739
0.62, 1.34, 4.25182, 0.796629
0.63, 1.36, 4.31528, 0.808519
0.64, 1.39, 4.41047, 0.826354
0.65, 1.42, 4.50566, 0.844189
0.66, 1.44, 4.56912, 0.856079
0.67, 1.47, 4.66431, 0.873914
0.68, 1.5, 4.7595, 0.891749
0.69, 1.53, 4.85469, 0.909584
0.7, 1.55, 4.91815, 0.921474
0.71, 1.58, 5.01334, 0.939309
0.72, 1.6, 5.0768, 0.951199
0.728, 1.62, 5.14026, 0.963089
0.741, 1.64, 5.20372, 0.974979
0.75, 1.67, 5.29891, 0.992814
0.76, 1.69, 5.36237, 1.0047
0.77, 1.71, 5.42583, 1.01659
0.78, 1.73, 5.48929, 1.02848
0.79, 1.75, 5.55275, 1.04037
0.8, 1.77, 5.61621, 1.05226
0.81, 1.79, 5.67967, 1.06415
0.819, 1.82, 5.77486, 1.08199
0.829, 1.85, 5.87005, 1.09982
0.839, 1.88, 5.96524, 1.11766
0.848, 1.92, 6.09216, 1.14144
0.854, 1.96, 6.21908, 1.16522
0.859, 2.02, 6.40946, 1.20089
0.865, 2.11, 6.69503, 1.25439
0.872, 2.18, 6.91714, 1.29601
0.9, 2.34, 7.42482, 1.39113
0.93, 2.52, 7.99596, 1.49814
0.937, 2.59, 8.21807, 1.53975
0.947, 2.72, 8.63056, 1.61704
0.956, 2.93, 9.29689, 1.74188
0.97, 3.21, 10.18533, 1.90834
0.978, 3.39, 10.75647, 2.01535
0.985, 3.67, 11.64491, 2.18181
0.991, 3.94, 12.50162, 2.34233