File: convert_PP0_to_alpha-s/carbon_additional_data/Carbon_LMA10_N2_77K_convert_data.txt
# LMA10, N2, 77.4 K, data, t
# Standard data for the adsorption of N2 at 77.4 K on reference carbon LMA10.
# A. Silvestre-Albero et al., Carbon 66 (2014) 699.
# (i.e., n/nm -where nm is the monolayer capacity from which the BET surface area is determined- against P/P0)
# nm = 9.15e-5 mol/g, V(alpha-s=1) = V(P/P0=0.4) = V04 = 3.26 cm3(STP)/g, S(BET) = 8.517 m2/g
# S [m2/g]= slope [cm3(STP)/g] * 8.517/3.26 = slope [cm3(STP)/g] * 2.61257
#   Amount for a monolayer: n = 9.15e-5 / (1/1000/22.414) = 9.15e-5 / 4.461e-5 = 1.6521 [cm3(STP)/g]
# https://www.mdpi.com/2227-9717/8/11/1359/htm
# P/P0, alpha-s, n/nm, V[cm3(STP)/g], t[nm]
1.30E-06, 0.00918461, 0.01462327, 0.0299418, 0.006415734
4.02E-06, 0.02096128, 0.03337347, 0.0683338, 0.0146421
8.74E-06, 0.03088959, 0.0491808, 0.1007, 0.0215773
1.34E-05, 0.04315592, 0.06871062, 0.140688, 0.0301457
3.82E-05, 0.08388118, 0.133551, 0.273453, 0.0585936
5.83E-05, 0.107615, 0.171338, 0.350824, 0.0751721
7.64E-05, 0.123604, 0.196796, 0.402948, 0.0863411
0.00010165, 0.140968, 0.224441, 0.459554, 0.0984702
0.00013011, 0.16047, 0.255492, 0.523132, 0.112093
0.00016088, 0.17406, 0.277129, 0.567435, 0.121586
0.0002093, 0.198358, 0.315815, 0.646647, 0.138559
0.00025827, 0.212679, 0.338617, 0.693335, 0.148563
0.00032757, 0.236368, 0.376333, 0.77056, 0.16511
0.00038983, 0.2471075, 0.393432, 0.80557, 0.172612
0.00041969, 0.257068, 0.409291, 0.838043, 0.17957
0.00047441, 0.265389, 0.422538, 0.865167, 0.185382
0.0005881, 0.284899, 0.453601, 0.92877, 0.199011
0.00089208, 0.321336, 0.511614, 1.04755, 0.224463
0.00127859, 0.350115, 0.557435, 1.14137, 0.244566
0.00245529, 0.40139, 0.639073, 1.30853, 0.280384
0.00379197, 0.435144, 0.692814, 1.41857, 0.3039618
0.00677127, 0.476351, 0.758421, 1.5529, 0.332746
0.01014755, 0.501797, 0.798936, 1.63586, 0.350521
0.01809089, 0.534032, 0.850258, 1.74094, 0.373038
0.02638693, 0.556524, 0.8860681, 1.81427, 0.388749
0.03883066, 0.571882, 0.910521, 1.86434, 0.399477
0.05441194, 0.5914037, 0.941602, 1.92798, 0.413114
0.06865321, 0.61128, 0.973249, 1.99277, 0.426998
0.08783181, 0.635602, 1.01197, 2.07206, 0.443987
0.099168, 0.651457, 1.03722, 2.12375, 0.455063
0.116229, 0.666011, 1.06039, 2.1712, 0.465229
0.129118, 0.681139, 1.08447, 2.22051, 0.475796
0.14211, 0.695758, 1.10775, 2.26817, 0.486008
0.157662, 0.713544, 1.13607, 2.32615, 0.498433
0.190421, 0.751216, 1.19605, 2.44897, 0.524748
0.21945, 0.786425, 1.2521, 2.56375, 0.549342
0.243756, 0.8162713, 1.29962, 2.66104, 0.570191
0.267204, 0.842019, 1.34062, 2.74498, 0.588176
0.291653, 0.873561, 1.39084, 2.84781, 0.61021
0.315936, 0.896798, 1.42784, 2.92356, 0.626441
0.345345, 0.940181, 1.49691, 3.06499, 0.656746
0.375575, 0.9672096, 1.53994, 3.1531, 0.675626
0.409409, 1.0054, 1.60074, 3.27759, 0.702301
0.428802, 1.02874, 1.6379, 3.35368, 0.718605
0.456985, 1.07454, 1.71083, 3.503, 0.7506
0.470013, 1.09124, 1.73741, 3.55743, 0.762263
0.486214, 1.10684, 1.76226, 3.60831, 0.773164
0.52639, 1.16558, 1.85578, 3.79979, 0.814194
0.554765, 1.21062, 1.92748, 3.94661, 0.845653
0.582057, 1.2437, 1.98015, 4.05446, 0.868762
0.609231, 1.28549, 2.0467, 4.19071, 0.897958
0.628345, 1.32129, 2.10369, 4.3074, 0.922961
0.677174, 1.41015, 2.24517, 4.5971, 0.985035
0.69838, 1.45541, 2.31723, 4.74465, 1.01665
0.728771, 1.54354, 2.45754, 5.03194, 1.07821
0.752764, 1.57787, 2.5122, 5.14385, 1.10219
0.787916, 1.68521, 2.6831, 5.49378, 1.17717
0.809279, 1.78755, 2.84605, 5.82743, 1.24866
0.837782, 1.87793, 2.98994, 6.12204, 1.31179
0.862837, 1.99697, 3.17947, 6.51012, 1.39494
0.885325, 2.16804, 3.45184, 7.06782, 1.51444
0.912382, 2.4249, 3.8608, 7.90518, 1.69387
0.941298, 2.79074, 4.44328, 9.09782, 1.94942
0.961232, 3.43283, 5.46557, 11.191, 2.39793
0.974836, 3.93158, 6.25965, 12.8169, 2.74633
0.986252, 4.92717, 7.84478, 16.0626, 3.44178
0.991124, 6.24052, 9.93584, 20.3441, 4.3592
0.994585, 6.87846, 10.9515, 22.4238, 4.80482