File: convert_PP0_to_alpha-s/carbon_additional_data/Non-Graphitized_carbon_black_sample_NGCB_N2_77K_convert_data.txt
# Non-Graphitized carbon black (NGCB), N2, 77.4 K, data, t
# K. Nakai et al., DOI:10.1016/j.jcis.2010.08.005
# V(alpha-s=1) = V(P/P0=0.4) = V0.4 = 6.96 [cm3(STP)/g], V(theta=1)=4.34 [cm3(STP)/g], S(BET) = 18.9 [m2/g]
# S(alpha-s)[m2/g] = slope[cm3(STP)/g] * 18.9/6.96 = slope[cm3(STP)/g] * 2.715517
# [pyGASP] BET surface area: a = 19 m2/g, The BET constant is: C = 138, Amount for a monolayer: n = 0.00019 mol/g
#   Amount for a monolayer: n = 0.00019 / (1/1000/22.414) = 0.00019 / 4.461e-5 = 4.25913 [cm3(STP)/g]
# n/(molecules/nm2) = 0.602 * Gamma/(micro mol/m2)
# P/P0, alpha-s, Gamma(micro mol/m2), V[cm3(STP)/g], t[nm]
0.00000005, 0.0022, 0.035, 0.015312, 0.001272664
0.00000007, 0.0034, 0.057, 0.023664, 0.001966845
0.0000001, 0.005, 0.083, 0.0348, 0.002892418
0.00000015, 0.0066, 0.109, 0.045936, 0.003817992
0.0000002, 0.0076, 0.125, 0.052896, 0.004396476
0.00000025, 0.0085, 0.14, 0.05916, 0.004917111
0.0000003, 0.0093, 0.154, 0.064728, 0.005379898
0.0000004, 0.0111, 0.182, 0.077256, 0.006421169
0.0000005, 0.0126, 0.208, 0.087696, 0.007288895
0.000001, 0.0184, 0.303, 0.128064, 0.0106441
0.0000013, 0.021, 0.345, 0.14616, 0.0121482
0.000002, 0.0256, 0.421, 0.178176, 0.0148092
0.000003, 0.0309, 0.508, 0.215064, 0.0178751
0.000004, 0.0359, 0.591, 0.249864, 0.0207676
0.000005, 0.0402, 0.662, 0.279792, 0.023255
0.000006, 0.0445, 0.733, 0.30972, 0.0257425
0.000008, 0.0503, 0.828, 0.350088, 0.02909773
0.00001, 0.056, 0.922, 0.38976, 0.0323951
0.000013, 0.0618, 1.017, 0.430128, 0.0357503
0.00002, 0.0733, 1.206, 0.510168, 0.0424029
0.00003, 0.0862, 1.419, 0.599952, 0.0498653
0.00004, 0.0977, 1.608, 0.679992, 0.0565179
0.00006, 0.115, 1.89, 0.8004, 0.0665256
0.00008, 0.129, 2.13, 0.89784, 0.0746244
0.0001, 0.144, 2.36, 1.00224, 0.0833017
0.00013, 0.161, 2.65, 1.12056, 0.0931359
0.0002, 0.19, 3.12, 1.3224, 0.109912
0.0003, 0.223, 3.66, 1.55208, 0.129002
0.0004, 0.25, 4.11, 1.74, 0.144621
0.0005, 0.27, 4.45, 1.8792, 0.156191
0.0006, 0.283, 4.66, 1.96968, 0.163711
0.0008, 0.309, 5.08, 2.15064, 0.178751
0.001, 0.33, 5.44, 2.2968, 0.1909
0.0013, 0.352, 5.79, 2.44992, 0.203626
0.002, 0.382, 6.29, 2.65872, 0.220981
0.003, 0.409, 6.74, 2.84664, 0.2366
0.005, 0.441, 7.26, 3.06936, 0.255111
0.006, 0.453, 7.45, 3.15288, 0.262053
0.008, 0.471, 7.76, 3.27816, 0.272466
0.01, 0.484, 7.97, 3.36864, 0.279986
0.013, 0.499, 8.2, 3.47304, 0.288663
0.02, 0.522, 8.58, 3.63312, 0.301968
0.03, 0.546, 8.99, 3.80016, 0.315852
0.04, 0.568, 9.34, 3.95328, 0.328579
0.05, 0.582, 9.58, 4.05072, 0.336678
0.06, 0.596, 9.81, 4.14816, 0.344776
0.08, 0.621, 10.21, 4.32216, 0.359238
0.1, 0.644, 10.59, 4.48224, 0.372544
0.12, 0.668, 10.99, 4.64928, 0.386427
0.14, 0.687, 11.3, 4.78152, 0.3974183
0.16, 0.711, 11.7, 4.94856, 0.411302
0.18, 0.733, 12.06, 5.10168, 0.424029
0.2, 0.754, 12.41, 5.24784, 0.436177
0.22, 0.78, 12.84, 5.4288, 0.451217
0.24, 0.802, 13.19, 5.58192, 0.463944
0.26, 0.825, 13.57, 5.742, 0.477249
0.28, 0.848, 13.95, 5.90208, 0.490554
0.3, 0.874, 14.38, 6.08304, 0.505595
0.32, 0.899, 14.8, 6.25704, 0.520057
0.34, 0.922, 15.18, 6.41712, 0.533362
0.36, 0.948, 15.61, 6.59808, 0.548403
0.38, 0.974, 16.03, 6.77904, 0.563443
0.4, 1, 16.46, 6.96, 0.578484
0.42, 1.02, 16.8, 7.0992, 0.590053
0.44, 1.05, 17.3, 7.308, 0.607408
0.46, 1.07, 17.7, 7.4472, 0.618978
0.48, 1.1, 18.1, 7.656, 0.636332
0.5, 1.12, 18.5, 7.7952, 0.647902
0.52, 1.15, 18.9, 8.004, 0.665256
0.54, 1.18, 19.4, 8.2128, 0.682611
0.56, 1.21, 19.9, 8.4216, 0.699965
0.58, 1.24, 20.4, 8.6304, 0.71732
0.6, 1.27, 20.9, 8.8392, 0.734674
0.62, 1.3, 21.4, 9.048, 0.752029
0.64, 1.34, 22, 9.3264, 0.775168
0.66, 1.36, 22.5, 9.4656, 0.786738
0.68, 1.4, 23.1, 9.744, 0.809877
0.7, 1.45, 23.9, 10.092, 0.838801
0.72, 1.49, 24.6, 10.3704, 0.861941
0.74, 1.54, 25.3, 10.7184, 0.890865
0.76, 1.59, 26.2, 11.0664, 0.919789
0.78, 1.65, 27.2, 11.484, 0.9544981
0.8, 1.71, 28.1, 11.9016, 0.989207
0.82, 1.78, 29.3, 12.3888, 1.0297
0.84, 1.87, 30.7, 13.0152, 1.08176
0.85, 1.91, 31.4, 13.2936, 1.1049
0.86, 1.97, 32.4, 13.7112, 1.13961
0.87, 2.04, 33.6, 14.1984, 1.18011
0.88, 2.11, 34.8, 14.6856, 1.2206
0.9, 2.27, 37.4, 15.7992, 1.31316