File: convert_PP0_to_alpha-s/carbon_additional_data/OGB_N2_77K_reference_data.txt
# graphite (OGB), N2, 77 K, data, t
# K. Miura et al., Adsorption (2007) 13: 139-147.: DOI 10.1007/s10450-007-9015-7
# Vm=V(theta=1) = 0.90 [cm3/g], C-value = 2242, S = 3.94 [m2/g]
# V(alpha-s=1) = V(P/P0=0.4) = V0.4 = 1.723016 [cm3/g]
# S(alpha-s)[m2/g] = slope[cm3(STP)/g] * 3.94/1.723016 = slope[cm3(STP)/g] * 2.286688
# [pyGASP] BET surface area: a = 4 m2/g, The BET constant is: C = 1664, Amount for a monolayer: n = 4e-05 mol/g
#   Amount for a monolayer: n = 4e-05 / (1/1000/22.414) = 4e-05 / 4.461e-5 = 0.89666 [cm3(STP)/g]
# relative_pressure_X, V[cm3(STP)/g], theta, alpha-s, t[nm]
1.50E-03, 0.7262, 0.8069, 0.42147, 0.2856426
8.09E-03, 0.8322, 0.9247, 0.48299, 0.3273438
1.84E-02, 0.9052, 1.0058, 0.525358, 0.3560532
3.39E-02, 0.9224, 1.0249, 0.53534, 0.3628146
4.40E-02, 0.9326, 1.0362, 0.54126, 0.3668148
5.97E-02, 0.9608, 1.0676, 0.557627, 0.3779304
7.48E-02, 0.9713, 1.0792, 0.563721, 0.3820368
8.98E-02, 0.9919, 1.1021, 0.575677, 0.3901434
1.12E-01, 1.0187, 1.1319, 0.591231, 0.4006926
1.37E-01, 1.0426, 1.1584, 0.605102, 0.4100736
0.1525, 1.0658, 1.1842, 0.618567, 0.4192068
0.1674, 1.0824, 1.2027, 0.628201, 0.4257558
0.1873, 1.1253, 1.2503, 0.653099, 0.4426062
0.2072, 1.1702, 1.3002, 0.679158, 0.4602708
0.2273, 1.2207, 1.3563, 0.708467, 0.4801302
0.2569, 1.303, 1.4478, 0.756232, 0.5125212
0.2867, 1.3975, 1.5528, 0.811078, 0.5496912
0.307, 1.4626, 1.6251, 0.84886, 0.5752854
0.3368, 1.5556, 1.7284, 0.902835, 0.6118536
0.3574, 1.6165, 1.7961, 0.93818, 0.6358194
0.3882, 1.693, 1.8811, 0.982579, 0.6659094
0.4088, 1.7454, 1.9393, 1.01299, 0.6865122
0.4337, 1.799, 1.9989, 1.0441, 0.7076106
0.4589, 1.8548, 2.0609, 1.07648, 0.7295586
0.4838, 1.8964, 2.1071, 1.10063, 0.7459134
0.5087, 1.9584, 2.176, 1.13661, 0.770304
0.5384, 2.0249, 2.2499, 1.17521, 0.7964646
0.5588, 2.0812, 2.3124, 1.20788, 0.8185896
0.5836, 2.1404, 2.3782, 1.24224, 0.8418828
0.6089, 2.2179, 2.4643, 1.28722, 0.8723622
0.6432, 2.3344, 2.5938, 1.35483, 0.9182052
0.6688, 2.4559, 2.7288, 1.42535, 0.9659952
0.6943, 2.5676, 2.8529, 1.49018, 1.00993
0.7188, 2.685, 2.9833, 1.55831, 1.05609
0.7435, 2.814, 3.1267, 1.63318, 1.10685
0.7688, 2.9692, 3.2991, 1.72326, 1.16788
0.7935, 3.1435, 3.4928, 1.82442, 1.23645
0.8177, 3.3297, 3.6997, 1.93248, 1.30969
0.8478, 3.618, 4.02, 2.09981, 1.42308
0.8666, 3.8753, 4.3059, 2.24914, 1.52429
0.9099, 4.7647, 5.2941, 2.76533, 1.87411
0.9592, 7.6331, 8.4812, 4.43008, 3.00234