File: convert_PP0_to_alpha-s/carbon/Carbon_LMA10_N2_77K_convert_data.txt
# LMA10, N2, 77.4 K
# Standard data for the adsorption of N2 at 77.4 K on reference carbon LMA10.
# A. Silvestre-Albero et al., Carbon 66 (2014) 699.
# (i.e., n/nm -where nm is the monolayer capacity from which the BET surface area is determined- against P/P0)
# nm = 9.15e-5 mol/g, V(alpha-s=1) = V(P/P0=0.4) = V04 = 3.26 cm3(STP)/g, S(BET) = 8.517 m2/g
# S [m2/g]= slope [cm3(STP)/g] * 8.517/3.26 = slope [cm3(STP)/g] * 2.61257
# https://www.mdpi.com/2227-9717/8/11/1359/htm
# P/P0, alpha-s, n/nm
1.3033E-06, 0.00918461, 0.01462327
4.0205E-06, 0.02096128, 0.03337347
8.7354E-06, 0.03088959, 0.04918080
1.3376E-05, 0.04315592, 0.06871062
3.8161E-05, 0.08388118, 0.133551
5.8282E-05, 0.107615, 0.171338
7.6355E-05, 0.123604, 0.196796
0.00010165, 0.140968, 0.224441
0.00013011, 0.16047, 0.255492
0.00016088, 0.17406, 0.277129
0.0002093, 0.198358, 0.315815
0.00025827, 0.212679, 0.338617
0.00032757, 0.236368, 0.376333
0.00038983, 0.247108, 0.393432
0.00041969, 0.257068, 0.409291
0.00047441, 0.265389, 0.422538
0.00058810, 0.284899, 0.453601
0.00089208, 0.321336, 0.511614
0.00127859, 0.350115, 0.557435
0.00245529, 0.40139, 0.639073
0.00379197, 0.435144, 0.692814
0.00677127, 0.476351, 0.758421
0.01014755, 0.501797, 0.798936
0.01809089, 0.534032, 0.850258
0.02638693, 0.556524, 0.886068
0.03883066, 0.571882, 0.910521
0.05441194, 0.591404, 0.941602
0.06865321, 0.61128, 0.973249
0.08783181, 0.635602, 1.01197
0.09916800, 0.651457, 1.03722
0.116229, 0.666011, 1.06039
0.129118, 0.681139, 1.08447
0.14211, 0.695758, 1.10775
0.157662, 0.713544, 1.13607
0.190421, 0.751216, 1.19605
0.21945, 0.786425, 1.2521
0.243756, 0.816271, 1.29962
0.267204, 0.842019, 1.34062
0.291653, 0.873561, 1.39084
0.315936, 0.896798, 1.42784
0.345345, 0.940181, 1.49691
0.375575, 0.96721, 1.53994
0.409409, 1.0054, 1.60074
0.428802, 1.02874, 1.6379
0.456985, 1.07454, 1.71083
0.470013, 1.09124, 1.73741
0.486214, 1.10684, 1.76226
0.52639, 1.16558, 1.85578
0.554765, 1.21062, 1.92748
0.582057, 1.2437, 1.98015
0.609231, 1.28549, 2.0467
0.628345, 1.32129, 2.10369
0.677174, 1.41015, 2.24517
0.69838, 1.45541, 2.31723
0.728771, 1.54354, 2.45754
0.752764, 1.57787, 2.5122
0.787916, 1.68521, 2.6831
0.809279, 1.78755, 2.84605
0.837782, 1.87793, 2.98994
0.862837, 1.99697, 3.17947
0.885325, 2.16804, 3.45184
0.912382, 2.4249, 3.8608
0.941298, 2.79074, 4.44328
0.961232, 3.43283, 5.46557
0.974836, 3.93158, 6.25965
0.986252, 4.92717, 7.84478
0.991124, 6.24052, 9.93584
0.994585, 6.87846, 10.9515