File: convert_PP0_to_alpha-s/carbon/Carbon_LMA10_Ar_87K_convert_data.txt
# LMA10, Ar, 87.3 K
# Standard data for the adsorption of Ar at 87.3 K on reference carbon LMA10.
# A. Silvestre-Albero et al., Carbon 66 (2014) 699.
# (i.e., n/nm -where nm is the monolayer capacity from which the BET surface area is determined- against P/P0)
# nm = 7.37e-5 [mol/g], V(alpha-s=1) = V(P/P0=0.4) = V0.4 = 2.68 [cm3(STP)/g]
# S(BET) = 6 [m2/g], C = 101, nm = 7e-5 [mol/g] by pyGASP code
# S [m2/g]= slope [cm3(STP)/g] * 6.00/2.68 = slope [cm3(STP)/g] * 2.238806
# P/P0, alpha-s, n/nm
9.8238E-06, 0.00165929, 0.00269599
2.0399E-05, 0.00712006, 0.01156855
5.0985E-05, 0.00859628, 0.01396708
7.0384E-05, 0.00884297, 0.01436789
8.3197E-05, 0.01350688, 0.02194573
9.6036E-05, 0.02008158, 0.03262818
0.00016047, 0.02387656, 0.03879419
0.00026554, 0.03687081, 0.05990700
0.00034209, 0.04637553, 0.07535009
0.00058726, 0.07750901, 0.125935
0.00123357, 0.157983, 0.256688
0.00160473, 0.188682, 0.306567
0.00308055, 0.267314, 0.434327
0.00574851, 0.354174, 0.575455
0.00831957, 0.40259, 0.654121
0.01070805, 0.430498, 0.699464
0.01214353, 0.442845, 0.719526
0.01370239, 0.456775, 0.742159
0.01570822, 0.471332, 0.765812
0.01802586, 0.480805, 0.781203
0.02064989, 0.492245, 0.799791
0.02359458, 0.501555, 0.814918
0.02891659, 0.510706, 0.829785
0.03122830, 0.51251, 0.832717
0.03493375, 0.51741, 0.840677
0.03908301, 0.527916, 0.857748
0.04290497, 0.535299, 0.869743
0.04941448, 0.539318, 0.876273
0.05720449, 0.553875, 0.899926
0.06438413, 0.559082, 0.908386
0.07039935, 0.569639, 0.925539
0.07635671, 0.576333, 0.936416
0.08245729, 0.582778, 0.946886
0.08618729, 0.586167, 0.952393
0.09723496, 0.60167, 0.977582
0.102132, 0.607602, 0.987221
0.11183, 0.618408, 1.00478
0.122663, 0.629527, 1.02284
0.134523, 0.644372, 1.04696
0.151208, 0.662574, 1.07654
0.162664, 0.681293, 1.10695
0.173323, 0.692746, 1.12556
0.186875, 0.715358, 1.1623
0.19277, 0.722343, 1.17365
0.206168, 0.73646, 1.19659
0.225373, 0.75984, 1.23457
0.236651, 0.772391, 1.25497
0.249169, 0.788659, 1.2814
0.261021, 0.808392, 1.31346
0.274562, 0.82231, 1.33607
0.286432, 0.831269, 1.35063
0.297486, 0.84835, 1.37838
0.308351, 0.86344, 1.4029
0.317066, 0.882692, 1.43418
0.328321, 0.900679, 1.46341
0.338333, 0.92132, 1.49694
0.348212, 0.927931, 1.50768
0.362664, 0.95114, 1.54539
0.370615, 0.960345, 1.56035
0.377557, 0.978393, 1.58967
0.388694, 0.991725, 1.61134
0.399217, 0.999974, 1.62474
0.411733, 1.01879, 1.65531
0.439434, 1.04866, 1.70384
0.481226, 1.1129, 1.80822
0.513109, 1.17033, 1.90154
0.554375, 1.26271, 2.05163
0.575071, 1.31612, 2.1384
0.615677, 1.40281, 2.27925
0.643906, 1.46719, 2.38386
0.667397, 1.53651, 2.4965
0.692191, 1.61325, 2.62118
0.710227, 1.6572, 2.69259
0.736366, 1.76174, 2.86244
0.761483, 1.86209, 3.02549
0.777782, 1.92495, 3.12763
0.839458, 2.24412, 3.6462
0.873348, 2.49298, 4.05054
0.894483, 2.70843, 4.4006
0.917358, 3.07514, 4.99643
0.931467, 3.41458, 5.54795
0.953174, 4.01491, 6.52335
0.957065, 4.18627, 6.80178
0.974662, 4.87102, 7.91435
0.983504, 5.72502, 9.30191
0.993939, 7.44402, 12.0949
0.994937, 7.89926, 12.8346