File: convert_PP0_to_alpha-s/carbon/G25_N2_77K_reference_data.txt
# graphite (G25), N2, 77 K, data, t
# K. Miura et al., Adsorption (2007) 13: 139-147.: DOI 10.1007/s10450-007-9015-7
# Vm=V(theta=1) = 2.83 [cm3/g], C-value = 443, S = 12.30 [m2/g]
# V(alpha-s=1) = V(P/P0=0.4) = V0.4 = 4.858842 [cm3/g]
# S(alpha-s)[m2/g] = slope[cm3(STP)/g] * 12.30/4.858842 = slope[cm3(STP)/g] * 2.531467
# relative_pressure_X, V[cm3(STP)/g], theta, alpha-s, t[nm]
3.62E-04, 0.988, 0.3491, 0.203341, 0.1235814
6.03E-04, 1.5154, 0.5355, 0.311885, 0.189567
5.55E-03, 2.2464, 0.7938, 0.462332, 0.2810052
1.22E-02, 2.444, 0.8636, 0.503001, 0.3057144
1.92E-02, 2.5425, 0.8984, 0.523273, 0.3180336
3.36E-02, 2.6704, 0.9436, 0.549596, 0.3340344
4.46E-02, 2.7505, 0.9719, 0.566081, 0.3440526
6.11E-02, 2.8494, 1.0069, 0.586436, 0.3564426
7.65E-02, 2.9297, 1.0352, 0.602963, 0.3664608
9.16E-02, 3.0051, 1.0619, 0.6184807, 0.3759126
0.1166, 3.1288, 1.1056, 0.643939, 0.3913824
0.1416, 3.2518, 1.149, 0.669254, 0.406746
0.1575, 3.3304, 1.1768, 0.685431, 0.4165872
0.1724, 3.4102, 1.205, 0.701854, 0.42657
0.1919, 3.5225, 1.2447, 0.724967, 0.4406238
0.2117, 3.6377, 1.2854, 0.748676, 0.4550316
0.2317, 3.7586, 1.3281, 0.773559, 0.4701474
0.2601, 3.9457, 1.3942, 0.812066, 0.4935468
0.2899, 4.1469, 1.4653, 0.853475, 0.5187162
0.3113, 4.297, 1.5184, 0.884367, 0.5375136
0.3396, 4.4892, 1.5863, 0.923924, 0.5615502
0.3608, 4.6239, 1.6339, 0.951647, 0.5784006
0.3937, 4.8238, 1.7045, 0.992788, 0.603393
0.4154, 4.9445, 1.7472, 1.01763, 0.6185088
0.4398, 5.0869, 1.7975, 1.04694, 0.636315
0.465, 5.2277, 1.8472, 1.07591, 0.6539088
0.4902, 5.3756, 1.8995, 1.10635, 0.672423
0.5147, 5.5232, 1.9517, 1.13673, 0.6909018
0.5434, 5.7119, 2.0183, 1.17557, 0.7144782
0.5645, 5.8553, 2.069, 1.20508, 0.732426
0.589, 6.0276, 2.1299, 1.24054, 0.7539846
0.6136, 6.2164, 2.1966, 1.2794, 0.7775964
0.6441, 6.4859, 2.2918, 1.33487, 0.8112972
0.6706, 6.73, 2.3781, 1.3851, 0.8418474
0.6948, 6.9859, 2.4685, 1.43777, 0.873849
0.7195, 7.2768, 2.5713, 1.49764, 0.9102402
0.7437, 7.5814, 2.6789, 1.56033, 0.9483306
0.7674, 7.9316, 2.8027, 1.63241, 0.9921558
0.7914, 8.3288, 2.943, 1.71415, 1.041822
0.8142, 8.7784, 3.1019, 1.80669, 1.09807
0.8408, 9.4006, 3.3218, 1.93474, 1.17592
0.8611, 10.003, 3.5346, 2.05872, 1.25125
0.9045, 12.006, 4.2424, 2.47096, 1.50181
0.9384, 15.017, 5.3064, 3.09065, 1.87847
0.9551, 17.859, 6.3106, 3.67557, 2.23395