File: standard_data/H2_298K_examples_data.csv
coordination on paint,,,,,,After convert,
H2,"Amount adsorbed, g/100g",,,,,H2,"Amount adsorbed, g/100g"
atm,Carbosieve,,,,,atm,Carbosieve
380,796,,origin,,,1.76101,0.029412
394,786,,366,806,,3.52201,0.058824
416,776,,,,,6.28931,0.088235
467,759,,max_x,max_y,,12.7044,0.138235
526,741,,1161,636,,20.1258,0.191176
574,724,,atm(max),g/100g(max),,26.1635,0.241176
674,700,,100,0.5,,38.7421,0.311765
773,680,,,,,51.195,0.370588
872,661,,,,,63.6478,0.426471
971,647,,,,,76.1006,0.467647
1070,631,,,,,88.5535,0.514706
,,,,,,,
,,,,,,,
atm,Maxsorb,,,,,atm,Maxsorb
1401,805,,origin,,,2.02381,0.020588
1417,801,,1384,812,,3.92857,0.032353
1438,794,,,,,6.42857,0.052941
1549,767,,max_x,max_y,,19.6429,0.132353
1597,758,,2224,642,,25.3571,0.158824
1711,733,,atm(max),g/100g(max),,38.9286,0.232353
1816,716,,100,0.5,,51.4286,0.282353
1921,698,,,,,63.9286,0.335294
2026,683,,,,,76.4286,0.379412
2128,670,,,,,88.5714,0.417647
,,,,,,,
,,,,,,,
atm,Norit,,,,,atm,Norit
2482,799,,origin,,,1.75659,0.017442
2501,793,,2468,805,,4.14053,0.034884
2521,786,,,,,6.64994,0.055233
2569,774,,max_x,max_y,,12.6725,0.090116
2617,762,,3265,633,,18.6951,0.125000
2668,751,,atm(max),g/100g(max),,25.0941,0.156977
2776,730,,100,0.5,,38.6449,0.218023
2875,715,,,,,51.0665,0.261628
2874,699,,,,,50.941,0.308140
3073,687,,,,,75.9097,0.343023