File: standard_data/H2_77K_3dspline_interpolation_example_data.csv
H2,Amount adsorbed [g/100g],,,77.347K,
atm,Carbosieve,atm,Norit,atm,Maxsorb
9.66E-06,0.000730012,9.66E-06,0.000385016,9.66E-06,0.000185308
1.10E-05,0.000826272,1.10E-05,0.000436827,1.10E-05,0.000210128
1.78E-05,0.001314754,1.78E-05,0.000699751,1.78E-05,0.000336082
2.75E-05,0.002011559,2.75E-05,0.001074804,2.75E-05,0.000515752
3.94E-05,0.002866403,3.94E-05,0.001534921,3.94E-05,0.000736172
5.34E-05,0.003872102,5.34E-05,0.002076235,5.34E-05,0.000995489
6.91E-05,0.004999921,6.91E-05,0.002683279,6.91E-05,0.001286295
8.66E-05,0.006257045,8.66E-05,0.003359921,8.66E-05,0.001610441
0.000106,0.007650656,0.000106,0.004110028,0.000106,0.001969781
0.000127,0.009159204,0.000127,0.004921998,0.000127,0.002358756
0.000149,0.0107396,0.000149,0.005772634,0.000149,0.002766255
0.000173,0.0124636,0.000173,0.0067006,0.000173,0.003210799
0.000198,0.0142595,0.000198,0.007667232,0.000198,0.003673865
0.000225,0.0161991,0.000225,0.008711194,0.000225,0.004173977
0.000253,0.0182105,0.000253,0.009793821,0.000253,0.004692611
0.000283,0.02036556,0.000283,0.0109538,0.000283,0.005248291
0.000313,0.0225206,0.000313,0.0121137,0.000313,0.00580397
0.000345,0.0248194,0.000345,0.013351,0.000345,0.006396695
0.000379,0.02726178,0.000379,0.0146656,0.000379,0.007026466
0.000414,0.029776,0.000414,0.0160189,0.000414,0.007674758
0.00045,0.0323621,0.00045,0.0174109,0.00045,0.008341574
0.000488,0.0350919,0.000488,0.0188802,0.000488,0.009045435
0.000527,0.0378935,0.000527,0.0203881,0.000527,0.009767818
0.000566,0.040695,0.000566,0.021896,0.000566,0.0104902
0.000658,0.0473039,0.000658,0.0254533,0.000658,0.0121943
0.00075,0.0539128,0.00075,0.0290105,0.00075,0.0138984
0.000851,0.0611682,0.000851,0.0329156,0.000851,0.0157692
0.00096,0.0689983,0.00096,0.0371302,0.00096,0.0177881
0.00108,0.07761855,0.00108,0.04177,0.00108,0.0200108
0.00121,0.08695718,0.00121,0.0467965,0.00121,0.0224188
0.00135,0.0970142,0.00135,0.0522096,0.00135,0.025012
0.0015,0.10779,0.0015,0.0580094,0.0015,0.0277904
0.00167,0.120002,0.00167,0.0645825,0.00167,0.0309392
0.00186,0.13365,0.00186,0.0719289,0.00186,0.0344585
0.00207,0.148736,0.00207,0.0800486,0.00207,0.0383483
0.0023,0.165258,0.0023,0.0889416,0.0023,0.0426085
0.00256,0.183935,0.00256,0.0989946,0.00256,0.0474244
0.00285,0.204768,0.00285,0.110208,0.00285,0.0527959
0.00318,0.228473,0.00318,0.122967,0.00318,0.0589084
0.00355,0.255053,0.00355,0.137273,0.00355,0.0657618
0.00397,0.285223,0.00397,0.153513,0.00397,0.0735413
0.00446,0.320423,0.00446,0.172459,0.00446,0.0826174
0.00501,0.359204,0.00501,0.193724,0.00501,0.0926874
0.00565,0.384601,0.00565,0.213668,0.00565,0.100784
0.00638,0.41357,0.00638,0.236239,0.00638,0.110019
0.00722,0.446903,0.00722,0.262211,0.00722,0.120645
0.00821,0.48619,0.00821,0.292821,0.00821,0.133169
0.00934,0.531032,0.00934,0.32776,0.00934,0.147464
0.0106,0.566232,0.0106,0.357467,0.0106,0.160663
0.0109,0.571145,0.0109,0.361192,0.0109,0.163152
0.0121,0.590796,0.0121,0.376093,0.0121,0.173111
0.0148,0.63501,0.0148,0.40962,0.0148,0.195517
0.0168,0.667761,0.0168,0.429688,0.0168,0.211894
0.019,0.703787,0.019,0.450838,0.019,0.229896
0.0243,0.77014,0.0243,0.497149,0.0243,0.270752
0.0301,0.820451,0.0301,0.533525,0.0301,0.30662
0.0338,0.851255,0.0338,0.555831,0.0338,0.328891
0.039,0.894548,0.039,0.58715,0.039,0.360537
0.0446,0.94117,0.0446,0.620782,0.0446,0.394443
0.05,0.975935,0.05,0.653193,0.05,0.422014
0.0604,1.02506,0.0604,0.689918,0.0604,0.466228
0.0701,1.07088,0.0701,0.723424,0.0701,0.507257
0.0802,1.11468,0.0802,0.758311,0.0802,0.541727
0.0902,1.15365,0.0902,0.792853,0.0902,0.573218
0.1,1.19169,0.1,0.826705,0.1,0.604094
0.119,1.25752,0.119,0.874436,0.119,0.664637
0.141,1.3129,0.141,0.928995,0.141,0.729394
0.162,1.36376,0.162,0.972861,0.162,0.781078
0.182,1.40807,0.182,1.0076,0.182,0.824637
0.202,1.44349,0.202,1.04213,0.202,0.870635
0.222,1.47892,0.222,1.07505,0.222,0.916014
0.243,1.5114,0.243,1.10961,0.243,0.956768
0.263,1.53888,0.263,1.13661,0.263,0.992695
0.283,1.56832,0.283,1.16141,0.283,1.02826
0.303,1.59625,0.303,1.18545,0.303,1.06655
0.323,1.61459,0.323,1.20671,0.323,1.09685
0.343,1.63293,0.343,1.22797,0.343,1.12697
0.361,1.65209,0.361,1.24532,0.361,1.15369
0.38,1.67437,0.38,1.26269,0.38,1.18148
0.4,1.69608,0.4,1.28077,0.4,1.21056
0.42,1.71025,0.42,1.297473,0.42,1.23575
0.44,1.72442,0.44,1.31414,0.44,1.26055
0.46,1.74061,0.46,1.3305,0.46,1.2865
0.48,1.75779,0.48,1.34644,0.48,1.31393
0.5,1.77451,0.5,1.36227,0.5,1.34124
0.52,1.78699,0.52,1.37408,0.52,1.36695
0.54,1.79939,0.54,1.38542,0.54,1.39255
0.56,1.8108,0.56,1.39835,0.56,1.41195
0.58,1.82142,0.58,1.41252,0.58,1.42652
0.6,1.83208,0.6,1.42623,0.6,1.4411
0.62,1.84304,0.62,1.43475,0.62,1.46462
0.64,1.85401,0.64,1.44309,0.64,1.49022
0.66,1.86439,0.66,1.45241,0.66,1.51297
0.68,1.87439,0.68,1.46338,0.68,1.53097
0.7,1.88445,0.7,1.4744,0.7,1.54896
0.72,1.89702,0.72,1.48666,0.72,1.56696
0.739,1.90918,0.739,1.49844,0.739,1.58405
0.76,1.92171,0.76,1.50855,0.76,1.60307
0.78,1.93268,0.78,1.51404,0.78,1.62136
0.801,1.9435,0.801,1.52031,0.801,1.64035
0.82,1.94861,0.82,1.53181,0.82,1.65388
0.841,1.95419,0.841,1.54483,0.841,1.66876
0.861,1.96084,0.861,1.55554,0.861,1.68506
0.882,1.96878,0.882,1.56514,0.882,1.70426
0.901,1.97711,0.901,1.57363,0.901,1.72115
0.921,1.98951,0.921,1.5803,0.921,1.73355
0.94,2.00129,0.94,1.58663,0.94,1.74533
0.958,2.00651,0.958,1.59335,0.958,1.75496
0.972,2.00792,0.972,1.59996,0.972,1.76107
0.981,2.00884,0.981,1.60422,0.981,1.76499
0.995,2.01025,0.995,1.61083,0.995,1.7711