File: standard_data/H2_87K_example_data.csv
coordination on paint,,,,,,,,,,After convert,,,,,,
H2,"Amount adsorbed, cm3(STP)/g",,,,,,,,,H2,"Amount adsorbed, cm3(STP)/g",,,,,
log,pixel,,,,,,,,,,log,,,,,
Maxsorb,,Carbosieve,,Norit,,,,,,,Maxsorb,,Carbosieve,,Norit,
relative Pressure,cm3(STP)/g,relative Pressure,cm3(STP)/g,relative Pressure,cm3(STP)/g,,,y min,y max,,relative Pressure,cm3(STP)/g,relative Pressure,cm3(STP)/g,relative Pressure,cm3(STP)/g
254,581,276,561,320,570,,,0,1000,,1.28713E-06,0,1.86381E-06,40.0802,3.90806E-06,22.0441
292,580,316,554,346,566,,,581,82,,2.43968E-06,2.00401,3.65366E-06,54.1082,6.05304E-06,30.0601
313,578,358,546,361,563,,,,,,3.47379E-06,6.01202,7.40749E-06,70.1403,7.79104E-06,36.0721
337,577,400,535,401,559,,,,,,5.20235E-06,8.01603,1.50181E-05,92.1844,1.52729E-05,44.0882
362,575,443,521,444,552,,,x min,x max,,7.92326E-06,12.024,3.09646E-05,120.24,3.149E-05,58.1162
388,572,484,509,485,544,,log,1.00E-06,1,,1.2272E-05,18.0361,6.17304E-05,144.289,6.2778E-05,74.1483
415,570,526,497,527,534,,,239,1060,,1.93302E-05,22.0441,0.000125153,168.337,0.000127277,94.1884
440,568,566,483,567,522,,normal,0,1,,2.94402E-05,26.0521,0.00024534,196.393,0.000249504,118.236
488,560,608,473,609,512,,,,,,6.60286E-05,42.0842,0.000497406,216.433,0.000505847,138.277
513,554,634,465,621,508,,,,,,0.000100562,54.1082,0.000770413,232.465,0.000619038,146.293
535,548,662,461,664,499,,,,,,0.000145618,66.1323,0.001234105,240.481,0.001276346,164.329
559,542,677,457,703,490,,,,,,0.000218078,78.1563,0.001588453,248.497,0.002460292,182.365
583,553,702,453,746,482,,,,,,0.000326593,56.1122,0.002419237,256.513,0.005072681,198.397
608,523,731,447,786,474,,,,,,0.000497406,116.232,0.003941079,268.537,0.009944065,214.429
631,512,746,444,854,460,,,,,,0.000732485,138.277,0.005072681,274.549,0.0312262,242.485
655,498,789,437,882,452,,,,,,0.00109697,166.333,0.010459,288.577,0.0500204,258.517
679,485,815,433,896,450,,,,,,0.001642823,192.385,0.0161995,296.593,0.0633084,262.525
691,478,840,431,910,447,,,,,,0.002010429,206.413,0.024672,300.601,0.0801264,268.537
703,472,883,425,922,444,,,,,,0.002460292,218.437,0.0508693,312.625,0.0980559,274.549
718,463,905,424,947,438,,,,,,0.003166715,236.473,0.0736606,314.629,0.149341,286.573
731,454,922,421,964,434,,,,,,0.003941079,254.509,0.0980559,320.641,0.1988,294.589
760,437,946,420,976,433,,,,,,0.006420247,288.577,0.146849,322.645,0.243285,296.593
784,424,963,419,988,430,,,,,,0.009614963,314.629,0.195483,324.649,0.297723,302.605
814,408,987,415,,,,,,,,0.0159291,346.693,0.292755,332.665,,
842,393,,,,,,,,,,0.0255165,376.754,,,,
868,379,,,,,,,,,,0.0395215,404.81,,,,
896,358,,,,,,,,,,0.0633084,446.894,,,,
908,347,,,,,,,,,,0.0774746,468.938,,,,
922,332,,,,,,,,,,0.0980559,498.998,,,,
946,294,,,,,,,,,,0.146849,575.15,,,,
964,263,,,,,,,,,,0.1988,637.275,,,,
975,240,,,,,,,,,,0.239225,683.367,,,,
986,221,,,,,,,,,,0.28787,721.443,,,,
997,210,,,,,,,,,,0.346406,743.487,,,,
1005,204,,,,,,,,,,0.396325,755.511,,,,
,,,,,,,,,,,,,,,,
,,,,,,,,,,,,,,,,
,,,,,,,,,,,,,,,,
normal,pixel,,,,,,,,,,,,,,,
Maxsorb,,Carbosieve,,Norit,,,,,,,Maxsorb,,Carbosieve,,Norit,
relative Pressure,cm3(STP)/g,relative Pressure,cm3(STP)/g,relative Pressure,cm3(STP)/g,,,,,,relative Pressure,cm3(STP)/g,relative Pressure,cm3(STP)/g,relative Pressure,cm3(STP)/g
248,426,252,433,244,483,,,,,,0.0109622,310.621,0.0158343,296.593,0.006090134,196.393
254,410,258,431,248,474,,,,,,0.0182704,342.685,0.0231425,300.601,0.0109622,214.429
261,396,300,423,265,460,,,,,,0.02679659,370.741,0.0742996,316.633,0.0316687,242.485
274,378,341,421,282,452,,,,,,0.0426309,406.814,0.124239,320.641,0.0523752,258.517
292,359,383,419,292,450,,,,,,0.06455542,444.89,0.175396,324.649,0.06455542,262.525
305,347,423,418,306,446,,,,,,0.0803898,468.938,0.224117,326.653,0.0816078,270.541
320,330,465,417,320,443,,,,,,0.0986602,503.006,0.275274,328.657,0.0986602,276.553
362,295,506,416,362,438,,,,,,0.149817,573.146,0.325213,330.661,0.149817,286.573
404,263,548,415,404,434,,,,,,0.200974,637.275,0.37637,332.665,0.200974,294.589
444,239,588,414,444,432,,,,,,0.249695,685.371,0.425091,334.669,0.249695,298.597
486,220,630,413,486,430,,,,,,0.300853,723.447,0.476248,336.673,0.300853,302.605
524,208,671,413,527,428,,,,,,0.347138,747.495,0.526188,336.673,0.350792,306.613
569,202,710,412,569,426,,,,,,0.401949,759.519,0.573691,338.677,0.401949,310.621
609,199,751,412,609,424,,,,,,0.45067,765.531,0.62363,338.677,0.45067,314.629
649,194,793,411,651,422,,,,,,0.499391,775.551,0.674787,340.681,0.501827,318.637
692,193,835,410,691,420,,,,,,0.551766,777.555,0.725944,342.685,0.550548,322.645
732,189,875,409,731,419,,,,,,0.600487,785.571,0.774665,344.689,0.599269,324.649
772,186,915,407,771,416,,,,,,0.649208,791.583,0.823386,348.697,0.64799,330.661
814,185,958,407,814,413,,,,,,0.700365,793.587,0.875761,348.697,0.700365,336.673
854,183,998,407,854,410,,,,,,0.749086,797.595,0.924482,348.697,0.749086,342.685
894,181,,,896,408,,,,,,0.797808,801.603,,,0.800244,346.693
936,178,,,936,406,,,,,,0.848965,807.615,,,0.848965,350.701
979,174,,,976,405,,,,,,0.90134,815.631,,,0.897686,352.705
1017,171,,,1019,400,,,,,,0.947625,821.643,,,0.950061,362.725
1043,168,,,,,,,,,,0.979294,827.655,,,,