File: standard_data/H2_example_data.csv
H2,Amount adsorbed [g/100g]
atm,Carbosieve,atm,Norit,atm,Maxsorb
0.000000,0.000000,0.0000000,0.000000,0.000000,0.000000
0.007861635,0.521390,0.0110063,0.374332,0.007861635,0.138146
0.0220126,0.753119,0.0235849,0.494652,0.0235849,0.267380
0.047170,0.962567,0.0503145,0.655080,0.047170,0.409982
0.0754717,1.09626,0.100629,0.828877,0.072327,0.516934
0.100629,1.1943,0.150943,0.953654,0.100629,0.606061
0.122642,1.27005,0.199686,1.03832,0.125786,0.686275
0.149371,1.33244,0.248428,1.11854,0.150943,0.757576
0.174528,1.39483,0.298742,1.18093,0.176101,0.811052
0.199686,1.43939,0.349057,1.2344,0.201258,0.868984
0.224843,1.48396,0.397799,1.27897,0.224843,0.922460
0.248428,1.51961,0.451258,1.32353,0.253145,0.975936
0.272013,1.5508,0.501572,1.36364,0.27673,1.01604
0.297170,1.59091,0.548742,1.39037,0.301887,1.06506
0.350629,1.63993,0.599057,1.42602,0.352201,1.140820
0.396226,1.6934,0.652516,1.44831,0.400943,1.21212
0.446541,1.72906,0.701258,1.47504,0.451258,1.274510
0.498428,1.77362,0.751572,1.50624,0.500000,1.34135
0.548742,1.80481,0.800314,1.51961,0.548742,1.40374
0.599057,1.83155,0.850629,1.5508,0.603774,1.443850
0.647799,1.85829,0.899371,1.57308,0.652516,1.50624
0.701258,1.88503,0.9528302,1.59091,0.751572,1.59537
0.750000,1.91622,1,1.61319,0.800314,1.63993
0.798742,1.94296,,,0.850629,1.67558
0.849057,1.95633,,,0.899371,1.72014
0.896226,1.97415,,,0.949686,1.75134
0.946541,2.00535,,,0.990566,1.76916
0.990566,2.0098